# CPMG cps data
# Echo time[s] = 0.002, point = 999
#         time/s             real
           0.002          810.754
           0.004          694.388
           0.006          589.836
           0.008          515.479
            0.01          447.298
           0.012          393.103
           0.014          339.394
           0.016          310.984
           0.018          275.709
            0.02          242.875
           0.022          222.867
           0.024           202.91
           0.026          184.299
           0.028          167.017
            0.03          150.385
           0.032          146.061
           0.034          133.808
           0.036           122.65
           0.038          118.366
            0.04          109.952
           0.042          108.344
           0.044          107.557
           0.046          95.0954
           0.048          95.0329
            0.05          91.7218
           0.052          91.0042
           0.054            82.58
           0.056          79.6965
           0.058          77.1599
            0.06          78.0603
           0.062          78.2601
           0.064          72.1042
           0.066          68.1444
           0.068          65.7225
            0.07          62.4505
           0.072          68.1389
           0.074          63.9397
           0.076          65.5756
           0.078          62.9943
            0.08          62.4124
           0.082          61.0012
           0.084          60.3997
           0.086          61.9623
           0.088          57.2174
            0.09          57.5136
           0.092          61.5886
           0.094          50.5984
           0.096          55.5508
           0.098          48.2864
             0.1          48.0633
           0.102          47.7495
           0.104          50.6349
           0.106          49.9019
           0.108            56.25
            0.11          50.0351
           0.112          51.2652
           0.114          46.1739
           0.116          48.0172
           0.118          45.2244
            0.12          46.0491
           0.122          43.9389
           0.124          46.3765
           0.126          43.3604
           0.128          41.8976
            0.13          42.3123
           0.132           42.392
           0.134          44.4601
           0.136          41.7517
           0.138          44.1257
            0.14          39.1346
           0.142          37.0475
           0.144          40.2595
           0.146          40.5605
           0.148           43.546
            0.15          38.0403
           0.152          38.1449
           0.154          36.9808
           0.156          39.7626
           0.158          36.5199
            0.16          37.0407
           0.162          44.0144
           0.164          39.1152
           0.166           38.135
           0.168          34.9645
            0.17          33.9029
           0.172          35.3995
           0.174          37.2603
           0.176          37.0103
           0.178          41.0354
            0.18          35.2609
           0.182          34.2612
           0.184          35.7764
           0.186          38.6986
           0.188          34.1369
            0.19          36.8241
           0.192          35.6357
           0.194          35.7509
           0.196          35.8857
           0.198          35.0722
             0.2          32.7037
           0.202          31.0891
           0.204          32.6444
           0.206          37.3706
           0.208          33.2502
            0.21          36.5214
           0.212          30.7251
           0.214          35.3553
           0.216          39.0128
           0.218          36.7848
            0.22          34.6302
           0.222           34.761
           0.224          36.3122
           0.226          33.4145
           0.228          32.4531
            0.23          29.4518
           0.232          34.2475
           0.234          33.7018
           0.236          34.4828
           0.238          26.8762
            0.24          37.1662
           0.242          31.9034
           0.244          29.2032
           0.246          32.4292
           0.248          30.9056
            0.25          28.8536
           0.252           32.876
           0.254          34.6901
           0.256          30.9538
           0.258          31.8387
            0.26          32.9358
           0.262          27.1529
           0.264          36.9514
           0.266          29.9126
           0.268           28.734
            0.27          27.3796
           0.272          27.0026
           0.274           31.645
           0.276          30.1253
           0.278          28.2337
            0.28          31.0727
           0.282          26.7687
           0.284          31.3653
           0.286          30.0752
           0.288          33.2725
            0.29          29.9693
           0.292          28.5605
           0.294          28.5003
           0.296            31.53
           0.298          28.8861
             0.3          28.4652
           0.302          31.2012
           0.304          26.1612
           0.306           35.133
           0.308           31.254
            0.31          30.4377
           0.312          27.6499
           0.314          31.5716
           0.316          27.1736
           0.318          28.6948
            0.32          29.2118
           0.322          34.4413
           0.324          32.5125
           0.326          26.8776
           0.328          27.6295
            0.33          30.8689
           0.332            28.26
           0.334            27.75
           0.336          32.9436
           0.338          30.1892
            0.34          29.3471
           0.342           27.938
           0.344          27.7066
           0.346          29.1815
           0.348          24.6811
            0.35          25.0003
           0.352          25.7609
           0.354          30.6128
           0.356          33.1288
           0.358          28.8774
            0.36          32.9016
           0.362          26.8156
           0.364          25.3778
           0.366          26.0846
           0.368          31.7141
            0.37          28.3794
           0.372          25.6789
           0.374          26.3584
           0.376          29.9794
           0.378          28.5274
            0.38          30.4328
           0.382          28.4545
           0.384          27.9072
           0.386          27.8686
           0.388          27.1986
            0.39          24.8759
           0.392          27.0567
           0.394          30.1416
           0.396          25.3947
           0.398          29.6569
             0.4          26.2217
           0.402          26.3824
           0.404          28.6577
           0.406          27.9724
           0.408          25.8943
            0.41          23.5747
           0.412          25.1784
           0.414          25.2528
           0.416          26.6977
           0.418           21.375
            0.42          28.6097
           0.422          26.2797
           0.424          27.1273
           0.426          23.7973
           0.428          26.6745
            0.43          25.9543
           0.432          26.0048
           0.434           30.501
           0.436          23.4154
           0.438          24.3958
            0.44          22.2924
           0.442          26.2309
           0.444          23.2648
           0.446          26.6276
           0.448          25.7709
            0.45          28.4363
           0.452            26.75
           0.454          25.5884
           0.456           23.665
           0.458          24.1457
            0.46          25.8276
           0.462          23.0166
           0.464           24.683
           0.466          27.5097
           0.468          25.7721
            0.47          30.2286
           0.472          26.1573
           0.474          27.3004
           0.476          23.4714
           0.478          25.0711
            0.48          23.4231
           0.482          28.0627
           0.484          25.5077
           0.486           25.237
           0.488          23.3241
            0.49          25.3022
           0.492          23.7362
           0.494            25.12
           0.496          20.5278
           0.498          23.3803
             0.5          21.4115
           0.502          25.6765
           0.504          26.0846
           0.506             22.5
           0.508          27.6275
            0.51          21.7417
           0.512          26.8985
           0.514          27.9131
           0.516          26.1827
           0.518          23.5219
            0.52          26.0075
           0.522          24.8778
           0.524          24.6148
           0.526          24.8888
           0.528          20.5597
            0.53          28.1475
           0.532          24.2513
           0.534          25.7609
           0.536          27.2766
           0.538          26.9041
            0.54          24.1328
           0.542          21.8496
           0.544          25.8994
           0.546          24.7815
           0.548          24.2297
            0.55          21.4276
           0.552          23.7513
           0.554          20.0016
           0.556          24.7516
           0.558          20.9706
            0.56          23.8779
           0.562          26.0078
           0.564          19.3911
           0.566          25.3587
           0.568          22.0128
            0.57          20.7515
           0.572          25.8312
           0.574          24.4211
           0.576          23.7237
           0.578          26.0342
            0.58          26.1492
           0.582          26.3762
           0.584          26.1635
           0.586          19.7899
           0.588          21.2798
            0.59          24.1253
           0.592          24.5156
           0.594          20.6795
           0.596          22.4757
           0.598          27.3427
             0.6          24.3108
           0.602          21.1487
           0.604          20.4133
           0.606          26.8994
           0.608          23.0411
            0.61          23.5053
           0.612          19.7998
           0.614          27.1123
           0.616          22.5534
           0.618           19.851
            0.62          22.1532
           0.622          21.6308
           0.624          22.3005
           0.626          19.7029
           0.628          20.3731
            0.63          21.3823
           0.632          20.5061
           0.634          21.5878
           0.636           22.861
           0.638           25.045
            0.64          24.8763
           0.642          22.6336
           0.644          23.2584
           0.646          23.0397
           0.648          22.4169
            0.65          23.0054
           0.652          24.9562
           0.654          23.8685
           0.656          20.7342
           0.658          18.0069
            0.66          21.2401
           0.662          22.2532
           0.664          22.1603
           0.666          22.8873
           0.668          26.0243
            0.67          24.3865
           0.672          23.3977
           0.674          22.6674
           0.676          22.1677
           0.678          19.2305
            0.68          23.1098
           0.682          23.8868
           0.684           26.063
           0.686          19.5324
           0.688          16.2298
            0.69           19.851
           0.692          19.5196
           0.694          25.4966
           0.696          17.5004
           0.698          22.0907
             0.7          17.0156
           0.702          21.3984
           0.704          20.3888
           0.706           24.508
           0.708          20.9169
            0.71          20.4855
           0.712          21.4571
           0.714          19.8167
           0.716          21.8106
           0.718           23.511
            0.72          24.3599
           0.722          20.8844
           0.724          20.5034
           0.726          19.1328
           0.728          23.9694
            0.73          19.5436
           0.732           20.622
           0.734          23.0573
           0.736          17.7491
           0.738          21.4767
            0.74          23.8779
           0.742          23.1736
           0.744          22.0103
           0.746          22.3187
           0.748          21.7676
            0.75          23.3352
           0.752          20.7515
           0.754          20.2515
           0.756          22.1941
           0.758          22.8736
            0.76          18.4141
           0.762          21.3765
           0.764          21.3326
           0.766          21.1874
           0.768          20.8806
            0.77          24.6811
           0.772          18.8887
           0.774          16.7617
           0.776          18.3882
           0.778             16.5
            0.78          25.1126
           0.782          21.6449
           0.784          23.3469
           0.786            19.52
           0.788          19.8069
            0.79          19.2256
           0.792           23.378
           0.794          20.2427
           0.796          19.0004
           0.798          17.1255
             0.8          19.5296
           0.802          15.9516
           0.804          19.4117
           0.806           14.885
           0.808          19.9883
            0.81          21.1926
           0.812          19.6505
           0.814          20.4855
           0.816          22.3973
           0.818          20.1498
            0.82          20.8784
           0.822          23.4124
           0.824          20.5061
           0.826          20.4397
           0.828          23.4154
            0.83          17.9378
           0.832          20.3255
           0.834          18.7621
           0.836          19.4153
           0.838          20.1347
            0.84          22.7751
           0.842          16.0337
           0.844           18.235
           0.846          18.2846
           0.848          17.0156
            0.85           16.156
           0.852          23.3914
           0.854          23.8907
           0.856          22.1254
           0.858          17.3858
            0.86          16.8008
           0.862           19.145
           0.864          19.8388
           0.866          16.2735
           0.868          14.5484
            0.87           17.397
           0.872          17.9187
           0.874          19.4695
           0.876          17.4302
           0.878          19.0263
            0.88          21.7629
           0.882          23.2983
           0.884          24.2297
           0.886          17.9239
           0.888          20.2596
            0.89          12.1617
           0.892           14.109
           0.894          22.5866
           0.896          20.1994
           0.898          20.2639
             0.9          19.3427
           0.902          18.5017
           0.904           17.882
           0.906          18.3427
           0.908          15.4606
            0.91          20.5746
           0.912           21.225
           0.914           14.285
           0.916          19.2199
           0.918          20.2955
            0.92          19.0201
           0.922           19.886
           0.924          21.2735
           0.926          16.8866
           0.928          18.5443
            0.93          19.7998
           0.932          13.4629
           0.934           20.866
           0.936          12.0649
           0.938          19.3043
            0.94          18.4704
           0.942          16.2812
           0.944          9.90344
           0.946          16.0078
           0.948          17.0225
            0.95          17.4078
           0.952          17.6998
           0.954          18.2607
           0.956          22.9704
           0.958          18.2217
            0.96          17.2505
           0.962           13.925
           0.964          20.5198
           0.966          17.3961
           0.968          16.4967
            0.97          17.3754
           0.972          16.6043
           0.974           15.212
           0.976          12.6219
           0.978          16.2259
            0.98          20.0035
           0.982          16.1574
           0.984          13.7959
           0.986          14.4309
           0.988          15.8829
            0.99          15.0042
           0.992          18.6065
           0.994          18.0434
           0.996          20.3785
           0.998          14.6805
               1          13.4222
           1.002          17.8785
           1.004          21.7072
           1.006           17.625
           1.008          16.3793
            1.01          17.2341
           1.012          13.8801
           1.014          15.1791
           1.016          15.5005
           1.018          13.6771
            1.02          19.8167
           1.022          15.9457
           1.024          18.5004
           1.026          19.0763
           1.028          15.3973
            1.03          14.9838
           1.032          15.8755
           1.034          16.9945
           1.036          15.7525
           1.038          18.1267
            1.04          18.3137
           1.042          19.2504
           1.044          19.0927
           1.046          13.4222
           1.048           10.672
            1.05          13.7534
           1.052          15.5045
           1.054          12.2907
           1.056          22.2043
           1.058          14.0273
            1.06          15.8927
           1.062          18.1418
           1.064          13.4455
           1.066          21.4454
           1.068          20.3366
            1.07          20.3765
           1.072          13.8609
           1.074          16.2197
           1.076          15.9344
           1.078          16.9531
            1.08          17.2518
           1.082          18.8564
           1.084          17.3385
           1.086          14.9086
           1.088          19.7895
            1.09           15.013
           1.092           19.404
           1.094          19.0037
           1.096          17.5753
           1.098          16.3081
             1.1          14.3755
           1.102          18.0334
           1.104          15.6649
           1.106           16.331
           1.108          17.1182
            1.11          19.5871
           1.112          14.8813
           1.114          13.7073
           1.116          15.5724
           1.118          11.4489
            1.12          10.8757
           1.122          14.1256
           1.124          20.0472
           1.126          13.4455
           1.128           16.817
            1.13          16.8101
           1.132           18.144
           1.134          16.4022
           1.136          21.6542
           1.138          17.1473
            1.14          17.6693
           1.142          16.9641
           1.144          15.5081
           1.146          14.4935
           1.148          13.4123
            1.15          13.4001
           1.152          16.2812
           1.154          16.0954
           1.156          15.7901
           1.158          17.0427
            1.16          10.3592
           1.162          13.1155
           1.164          16.2543
           1.166          14.0022
           1.168          18.2731
            1.17           16.344
